 input: iat,izt,iap,izp =  22  8  1  0

 input: emin,emax,vnmin,vnmax =      2.734     2.734     0.200     1.500
 defaults:  vn,adif,rr0,vnls =   1.0000  0.6500  1.2500  1.0000
 input:     vn,adif,rr0,vnls =   0.0000  0.0000  0.0000  0.0000

 resonance at vn =   0.506
 resonance at vn =   0.503
 resonance at ei =   2.631 with  G =    1.12777 MeV   
 resonance at ei =   2.596 with  G =    1.05088 MeV   

 n, e, phi, sig=sin(phi)**2/k, vnorm
  0   0.68350   0.020   0.7350E+00    0.50290
  0   0.70357   0.021   0.8349E+00    0.50290
  0   0.72364   0.023   0.9452E+00    0.50290
  0   0.74372   0.025   0.1068E+01    0.50290
  0   0.76379   0.027   0.1202E+01    0.50290
  0   0.78386   0.029   0.1350E+01    0.50290
  0   0.80393   0.031   0.1514E+01    0.50290
  0   0.82400   0.033   0.1692E+01    0.50290
  0   0.84407   0.035   0.1889E+01    0.50290
  0   0.86415   0.037   0.2103E+01    0.50290
  0   0.88422   0.040   0.2336E+01    0.50290
  0   0.90429   0.042   0.2593E+01    0.50290
  0   0.92436   0.045   0.2871E+01    0.50290
  0   0.94443   0.048   0.3175E+01    0.50290
  0   0.96451   0.051   0.3507E+01    0.50290
  0   0.98458   0.054   0.3864E+01    0.50290
  0   1.00465   0.057   0.4255E+01    0.50290
  0   1.02472   0.061   0.4679E+01    0.50290
  0   1.04479   0.064   0.5135E+01    0.50290
  0   1.06486   0.068   0.5634E+01    0.50290
  0   1.08494   0.072   0.6174E+01    0.50290
  0   1.10501   0.076   0.6752E+01    0.50290
  0   1.12508   0.080   0.7384E+01    0.50290
  0   1.14515   0.084   0.8067E+01    0.50290
  0   1.16522   0.089   0.8797E+01    0.50290
  0   1.18530   0.094   0.9591E+01    0.50290
  0   1.20537   0.099   0.1045E+02    0.50290
  0   1.22544   0.104   0.1137E+02    0.50290
  0   1.24551   0.109   0.1236E+02    0.50290
  0   1.26558   0.115   0.1344E+02    0.50290
  0   1.28565   0.120   0.1459E+02    0.50290
  0   1.30573   0.126   0.1583E+02    0.50290
  0   1.32580   0.133   0.1717E+02    0.50290
  0   1.34587   0.139   0.1861E+02    0.50290
  0   1.36594   0.146   0.2015E+02    0.50290
  0   1.38601   0.153   0.2182E+02    0.50290
  0   1.40609   0.161   0.2362E+02    0.50290
  0   1.42616   0.168   0.2552E+02    0.50290
  0   1.44623   0.176   0.2758E+02    0.50290
  0   1.46630   0.184   0.2981E+02    0.50290
  0   1.48637   0.193   0.3218E+02    0.50290
  0   1.50645   0.202   0.3471E+02    0.50290
  0   1.52652   0.211   0.3746E+02    0.50290
  0   1.54659  -2.920   0.4041E+02    0.50290
  0   1.56666   0.231   0.4353E+02    0.50290
  0   1.58673   0.242   0.4687E+02    0.50290
  0   1.60680   0.253   0.5051E+02    0.50290
  0   1.62688   0.264   0.5437E+02    0.50290
  0   1.64695   0.276   0.5845E+02    0.50290
  0   1.66702   0.288   0.6286E+02    0.50290
  0   1.68709   0.301   0.6761E+02    0.50290
  0   1.70716   0.314   0.7262E+02    0.50290
  0   1.72724   0.328   0.7793E+02    0.50290
  0   1.74731   0.342   0.8367E+02    0.50290
  0   1.76738  -2.785   0.8980E+02    0.50290
  0   1.78745   0.372   0.9624E+02    0.50290
  0   1.80752   0.388   0.1030E+03    0.50290
  0   1.82759   0.405   0.1104E+03    0.50290
  0   1.84767  -2.719   0.1182E+03    0.50290
  0   1.86774   0.440   0.1263E+03    0.50290
  0   1.88781   0.459   0.1349E+03    0.50290
  0   1.90788   0.478   0.1440E+03    0.50290
  0   1.92795  -2.644   0.1537E+03    0.50290
  0   1.94803   0.518   0.1637E+03    0.50290
  0   1.96810   0.539   0.1742E+03    0.50290
  0   1.98817   0.562   0.1853E+03    0.50290
  0   2.00824  -2.557   0.1969E+03    0.50290
  0   2.02831   0.607   0.2087E+03    0.50290
  0   2.04838   0.631   0.2209E+03    0.50290
  0   2.06846   0.656   0.2338E+03    0.50290
  0   2.08853  -2.460   0.2470E+03    0.50290
  0   2.10860   0.708   0.2603E+03    0.50290
  0   2.12867   0.734   0.2738E+03    0.50290
  0   2.14874   0.761   0.2877E+03    0.50290
  0   2.16882  -2.352   0.3019E+03    0.50290
  0   2.18889   0.818   0.3158E+03    0.50290
  0   2.20896   0.846   0.3296E+03    0.50290
  0   2.22903   0.875   0.3435E+03    0.50290
  0   2.24910  -2.236   0.3573E+03    0.50290
  0   2.26917  -2.207   0.3707E+03    0.50290
  0   2.28925   0.965   0.3834E+03    0.50290
  0   2.30932   0.995   0.3958E+03    0.50290
  0   2.32939   1.026   0.4078E+03    0.50290
  0   2.34946  -2.085   0.4191E+03    0.50290
  0   2.36953   1.087   0.4295E+03    0.50290
  0   2.38961   1.117   0.4391E+03    0.50290
  0   2.40968   1.147   0.4480E+03    0.50290
  0   2.42975  -1.964   0.4562E+03    0.50290
  0   2.44982  -1.934   0.4632E+03    0.50290
  0   2.46989   1.236   0.4692E+03    0.50290
  0   2.48996   1.265   0.4744E+03    0.50290
  0   2.51004  -1.848   0.4789E+03    0.50290
  0   2.53011  -1.820   0.4824E+03    0.50290
  0   2.55018   1.349   0.4848E+03    0.50290
  0   2.57025   1.376   0.4865E+03    0.50290
  0   2.59032   1.402   0.4874E+03    0.50290
  0   2.61040  -1.713   0.4876E+03    0.50290
  0   2.63047  -1.688   0.4871E+03    0.50290
  0   2.65054   1.477   0.4859E+03    0.50290
  0   2.67061   1.501   0.4841E+03    0.50290
  0   2.69068  -1.618   0.4818E+03    0.50290
  0   2.71075  -1.595   0.4790E+03    0.50290
  0   2.73083  -1.574   0.4757E+03    0.50290
  0   2.75090   1.588   0.4721E+03    0.50290
  0   2.77097   1.609   0.4682E+03    0.50290
  0   2.79104  -1.513   0.4639E+03    0.50290
  0   2.81111  -1.494   0.4594E+03    0.50290
  0   2.83119  -1.476   0.4548E+03    0.50290
  0   2.85126   1.683   0.4499E+03    0.50290
  0   2.87133   1.700   0.4449E+03    0.50290
  0   2.89140  -1.425   0.4398E+03    0.50290
  0   2.91147  -1.409   0.4346E+03    0.50290
  0   2.93155  -1.394   0.4294E+03    0.50290
  0   2.95162   1.762   0.4242E+03    0.50290
  0   2.97169   1.776   0.4190E+03    0.50290
  0   2.99176  -1.351   0.4136E+03    0.50290
  0   3.01183  -1.338   0.4083E+03    0.50290
  0   3.03190  -1.326   0.4032E+03    0.50290
  0   3.05198   1.828   0.3982E+03    0.50290
  0   3.07205   1.840   0.3930E+03    0.50290
  0   3.09212  -1.290   0.3879E+03    0.50290
  0   3.11219  -1.279   0.3829E+03    0.50290
  0   3.13226  -1.269   0.3781E+03    0.50290
  0   3.15234   1.883   0.3734E+03    0.50290
  0   3.17241   1.892   0.3686E+03    0.50290
  0   3.19248  -1.239   0.3638E+03    0.50290
  0   3.21255  -1.230   0.3592E+03    0.50290
  0   3.23262  -1.222   0.3548E+03    0.50290
  0   3.25269   1.928   0.3506E+03    0.50290
  0   3.27277   1.936   0.3463E+03    0.50290
  0   3.29284  -1.197   0.3420E+03    0.50290
  0   3.31291  -1.189   0.3378E+03    0.50290
  0   3.33298  -1.182   0.3339E+03    0.50290
  0   3.35305   1.966   0.3301E+03    0.50290
  0   3.37313   1.972   0.3264E+03    0.50290
  0   3.39320  -1.163   0.3225E+03    0.50290
  0   3.41327  -1.156   0.3187E+03    0.50290
  0   3.43334  -1.150   0.3152E+03    0.50290
  0   3.45341  -1.144   0.3119E+03    0.50290
  0   3.47348   2.002   0.3086E+03    0.50290
  0   3.49356   2.008   0.3052E+03    0.50290
  0   3.51363  -1.128   0.3018E+03    0.50290
  0   3.53370  -1.123   0.2986E+03    0.50290
  0   3.55377  -1.118   0.2956E+03    0.50290
  0   3.57384   2.028   0.2928E+03    0.50290
  0   3.59392   2.032   0.2899E+03    0.50290
  0   3.61399  -1.105   0.2869E+03    0.50290
  0   3.63406  -1.100   0.2840E+03    0.50290
  0   3.65413  -1.096   0.2812E+03    0.50290
  0   3.67420  -1.093   0.2787E+03    0.50290
  0   3.69427   2.052   0.2762E+03    0.50290
  1   3.71435   2.056   0.2736E+03    0.50290
  1   3.73442  -1.081   0.2710E+03    0.50290
  1   3.75449  -1.078   0.2685E+03    0.50290
  1   3.77456  -1.075   0.2662E+03    0.50290
  1   3.79463   2.069   0.2641E+03    0.50290
  1   3.81471   2.072   0.2619E+03    0.50290
  1   3.83478  -1.066   0.2596E+03    0.50290
  1   3.85485  -1.063   0.2573E+03    0.50290
  1   3.87492  -1.060   0.2551E+03    0.50290
  1   3.89499  -1.058   0.2532E+03    0.50290
  1   3.91506   2.086   0.2513E+03    0.50290
  1   3.93514   2.088   0.2493E+03    0.50290
  1   3.95521  -1.051   0.2473E+03    0.50290
  1   3.97528  -1.048   0.2453E+03    0.50290
  1   3.99535  -1.046   0.2434E+03    0.50290
  1   4.01542  -1.044   0.2418E+03    0.50290
  1   4.03550   2.099   0.2401E+03    0.50290
  1   4.05557   2.101   0.2384E+03    0.50290
  1   4.07564  -1.038   0.2366E+03    0.50290
  1   4.09571  -1.036   0.2348E+03    0.50290
  1   4.11578  -1.034   0.2332E+03    0.50290
  1   4.13586  -1.033   0.2318E+03    0.50290
  1   4.15593   2.110   0.2303E+03    0.50290
  1   4.17600   2.111   0.2287E+03    0.50290
  1   4.19607  -1.028   0.2271E+03    0.50290
  1   4.21614  -1.027   0.2255E+03    0.50290
  1   4.23621  -1.025   0.2241E+03    0.50290
  1   4.25629  -1.025   0.2229E+03    0.50290
  1   4.27636   2.118   0.2216E+03    0.50290
  1   4.29643   2.119   0.2202E+03    0.50290
  1   4.31650  -1.021   0.2188E+03    0.50290
  1   4.33657  -1.019   0.2173E+03    0.50290
  1   4.35665  -1.018   0.2161E+03    0.50290
  1   4.37672  -1.018   0.2150E+03    0.50290
  1   4.39679   2.124   0.2139E+03    0.50290
  1   4.41686   2.125   0.2126E+03    0.50290
  1   4.43693  -1.015   0.2113E+03    0.50290
  1   4.45700  -1.014   0.2100E+03    0.50290
  1   4.47708  -1.013   0.2089E+03    0.50290
  1   4.49715  -1.013   0.2079E+03    0.50290
  1   4.51722   2.129   0.2070E+03    0.50290
  1   4.53729   2.129   0.2059E+03    0.50290
  1   4.55736  -1.011   0.2047E+03    0.50290
  1   4.57744  -1.010   0.2035E+03    0.50290
  1   4.59751  -1.009   0.2025E+03    0.50290
  1   4.61758  -1.009   0.2016E+03    0.50290
  1   4.63765   2.132   0.2007E+03    0.50290
  1   4.65772   2.133   0.1998E+03    0.50290
  1   4.67779  -1.008   0.1987E+03    0.50290
 resonance at ei =   2.610 with  G =    1.08388 MeV   
